Number of sources
  1
AX  AY  AZ  BX  BY  BZ  Current
    -250      0.0       0.0    250       0.0       0.0     1.0
Number of measuring sites
1
Sounding number    X    Y    Z
  100	0   1000	0
Layers  Number of frequency/time windows
  3          126
Thickness  Resistivity
300    200
200    50
10000 500
Frequency/time windows
0.00001
1.09648E-05
1.20226E-05
1.31826E-05
1.44544E-05
1.58489E-05
1.7378E-05
1.90546E-05
2.0893E-05
2.29087E-05
2.51189E-05
2.75423E-05
3.01995E-05
3.31131E-05
3.63078E-05
3.98107E-05
4.36516E-05
4.7863E-05
5.24807E-05
5.7544E-05
6.30957E-05
6.91831E-05
7.58578E-05
8.31764E-05
9.12011E-05
0.0001
0.000109648
0.000120226
0.000131826
0.000144544
0.000158489
0.00017378
0.000190546
0.00020893
0.000229087
0.000251189
0.000275423
0.000301995
0.000331131
0.000363078
0.000398107
0.000436516
0.00047863
0.000524807
0.00057544
0.000630957
0.000691831
0.000758578
0.000831764
0.000912011
0.001
0.001096478
0.001202264
0.001318257
0.00144544
0.001584893
0.001737801
0.001905461
0.002089296
0.002290868
0.002511886
0.002754229
0.003019952
0.003311311
0.003630781
0.003981072
0.004365158
0.004786301
0.005248075
0.005754399
0.006309573
0.00691831
0.007585776
0.008317638
0.009120108
0.01
0.010964782
0.012022644
0.013182567
0.014454398
0.015848932
0.017378008
0.019054607
0.020892961
0.022908677
0.025118864
0.027542287
0.030199517
0.033113112
0.036307805
0.039810717
0.043651583
0.047863009
0.052480746
0.057543994
0.063095734
0.069183097
0.075857758
0.083176377
0.091201084
0.1
0.10964782
0.120226443
0.131825674
0.144543977
0.158489319
0.173780083
0.190546072
0.208929613
0.229086765
0.251188643
0.27542287
0.301995172
0.331131121
0.363078055
0.398107171
0.436515832
0.478630092
0.52480746
0.575439937
0.630957344
0.691830971
0.758577575
0.831763771
0.912010839
1